    721    14   256     datakind beginning-row linenumbers
 ----------------------------------------------------------------
                     David A. Shirley's group
               Pennsylvania State University (PSU)
           Lawrence Berkeley National Laboratory (LBNL)
      Copyright (c) 1995-1996 DAS group. All rights reserved
 ----------------------------------------------------------------

         1 1s           1 radial matrix data

        binding energy =  501.697 eV

            k     R(li+1)    phase(li+1)
       5.0000    0.41261E-01      1.8154
       5.0500    0.41340E-01      1.8085
       5.1000    0.41420E-01      1.8018
       5.1500    0.41501E-01      1.7952
       5.2000    0.41581E-01      1.7887
       5.2500    0.41661E-01      1.7825
       5.3000    0.41740E-01      1.7763
       5.3500    0.41819E-01      1.7703
       5.4000    0.41897E-01      1.7645
       5.4500    0.41974E-01      1.7588
       5.5000    0.42050E-01      1.7532
       5.5500    0.42125E-01      1.7479
       5.6000    0.42198E-01      1.7426
       5.6500    0.42269E-01      1.7376
       5.7000    0.42338E-01      1.7326
       5.7500    0.42405E-01      1.7279
       5.8000    0.42469E-01      1.7233
       5.8500    0.42531E-01      1.7188
       5.9000    0.42590E-01      1.7145
       5.9500    0.42646E-01      1.7103
       6.0000    0.42699E-01      1.7063
       6.0500    0.42749E-01      1.7025
       6.1000    0.42794E-01      1.6988
       6.1500    0.42836E-01      1.6952
       6.2000    0.42873E-01      1.6918
       6.2500    0.42907E-01      1.6885
       6.3000    0.42936E-01      1.6854
       6.3500    0.42960E-01      1.6824
       6.4000    0.42979E-01      1.6795
       6.4500    0.42993E-01      1.6767
       6.5000    0.43002E-01      1.6741
       6.5500    0.43005E-01      1.6716
       6.6000    0.43003E-01      1.6692
       6.6500    0.42996E-01      1.6670
       6.7000    0.42982E-01      1.6648
       6.7500    0.42962E-01      1.6628
       6.8000    0.42937E-01      1.6608
       6.8500    0.42905E-01      1.6590
       6.9000    0.42866E-01      1.6572
       6.9500    0.42822E-01      1.6555
       7.0000    0.42771E-01      1.6539
       7.0500    0.42713E-01      1.6524
       7.1000    0.42649E-01      1.6510
       7.1500    0.42579E-01      1.6496
       7.2000    0.42502E-01      1.6483
       7.2500    0.42418E-01      1.6470
       7.3000    0.42327E-01      1.6457
       7.3500    0.42231E-01      1.6445
       7.4000    0.42128E-01      1.6434
       7.4500    0.42019E-01      1.6423
       7.5000    0.41904E-01      1.6412
       7.5500    0.41782E-01      1.6401
       7.6000    0.41655E-01      1.6391
       7.6500    0.41521E-01      1.6380
       7.7000    0.41382E-01      1.6370
       7.7500    0.41237E-01      1.6359
       7.8000    0.41087E-01      1.6349
       7.8500    0.40931E-01      1.6338
       7.9000    0.40771E-01      1.6328
       7.9500    0.40605E-01      1.6317
       8.0000    0.40435E-01      1.6306
       8.0500    0.40260E-01      1.6294
       8.1000    0.40081E-01      1.6282
       8.1500    0.39898E-01      1.6270
       8.2000    0.39711E-01      1.6258
       8.2500    0.39520E-01      1.6245
       8.3000    0.39326E-01      1.6231
       8.3500    0.39129E-01      1.6217
       8.4000    0.38929E-01      1.6203
       8.4500    0.38726E-01      1.6188
       8.5000    0.38521E-01      1.6172
       8.5500    0.38313E-01      1.6156
       8.6000    0.38103E-01      1.6139
       8.6500    0.37892E-01      1.6122
       8.7000    0.37679E-01      1.6104
       8.7500    0.37464E-01      1.6085
       8.8000    0.37248E-01      1.6066
       8.8500    0.37032E-01      1.6046
       8.9000    0.36814E-01      1.6025
       8.9500    0.36596E-01      1.6004
       9.0000    0.36378E-01      1.5982
       9.0500    0.36159E-01      1.5959
       9.1000    0.35940E-01      1.5936
       9.1500    0.35721E-01      1.5912
       9.2000    0.35503E-01      1.5888
       9.2500    0.35285E-01      1.5863
       9.3000    0.35067E-01      1.5837
       9.3500    0.34851E-01      1.5811
       9.4000    0.34635E-01      1.5784
       9.4500    0.34420E-01      1.5756
       9.5000    0.34206E-01      1.5728
       9.5500    0.33993E-01      1.5699
       9.6000    0.33782E-01      1.5670
       9.6500    0.33572E-01      1.5640
       9.7000    0.33363E-01      1.5610
       9.7500    0.33156E-01      1.5580
       9.8000    0.32951E-01      1.5548
       9.8500    0.32747E-01      1.5517
       9.9000    0.32545E-01      1.5485
       9.9500    0.32345E-01      1.5453
      10.0000    0.32147E-01      1.5420
      10.0500    0.31951E-01      1.5387
      10.1000    0.31756E-01      1.5354
      10.1500    0.31564E-01      1.5320
      10.2000    0.31374E-01      1.5287
      10.2500    0.31185E-01      1.5253
      10.3000    0.30999E-01      1.5218
      10.3500    0.30814E-01      1.5184
      10.4000    0.30632E-01      1.5149
      10.4500    0.30452E-01      1.5115
      10.5000    0.30274E-01      1.5080
      10.5500    0.30098E-01      1.5045
      10.6000    0.29924E-01      1.5010
      10.6500    0.29752E-01      1.4975
      10.7000    0.29582E-01      1.4941
      10.7500    0.29415E-01      1.4906
      10.8000    0.29249E-01      1.4871
      10.8500    0.29085E-01      1.4836
      10.9000    0.28923E-01      1.4802
      10.9500    0.28763E-01      1.4767
      11.0000    0.28605E-01      1.4733
      11.0500    0.28449E-01      1.4699
      11.1000    0.28294E-01      1.4665
      11.1500    0.28141E-01      1.4631
      11.2000    0.27990E-01      1.4598
      11.2500    0.27841E-01      1.4565
      11.3000    0.27694E-01      1.4532
      11.3500    0.27548E-01      1.4499
      11.4000    0.27403E-01      1.4467
      11.4500    0.27260E-01      1.4435
      11.5000    0.27119E-01      1.4404
      11.5500    0.26978E-01      1.4373
      11.6000    0.26840E-01      1.4342
      11.6500    0.26702E-01      1.4311
      11.7000    0.26566E-01      1.4282
      11.7500    0.26431E-01      1.4252
      11.8000    0.26297E-01      1.4223
      11.8500    0.26164E-01      1.4194
      11.9000    0.26032E-01      1.4166
      11.9500    0.25901E-01      1.4139
      12.0000    0.25771E-01      1.4112
      12.0500    0.25642E-01      1.4085
      12.1000    0.25514E-01      1.4059
      12.1500    0.25386E-01      1.4033
      12.2000    0.25259E-01      1.4008
      12.2500    0.25133E-01      1.3983
      12.3000    0.25007E-01      1.3959
      12.3500    0.24882E-01      1.3935
      12.4000    0.24757E-01      1.3912
      12.4500    0.24633E-01      1.3890
      12.5000    0.24509E-01      1.3868
      12.5500    0.24385E-01      1.3846
      12.6000    0.24262E-01      1.3825
      12.6500    0.24139E-01      1.3804
      12.7000    0.24016E-01      1.3784
      12.7500    0.23894E-01      1.3764
      12.8000    0.23771E-01      1.3745
      12.8500    0.23648E-01      1.3727
      12.9000    0.23526E-01      1.3708
      12.9500    0.23404E-01      1.3690
      13.0000    0.23281E-01      1.3673
      13.0500    0.23159E-01      1.3656
      13.1000    0.23036E-01      1.3639
      13.1500    0.22913E-01      1.3623
      13.2000    0.22791E-01      1.3607
      13.2500    0.22668E-01      1.3592
      13.3000    0.22545E-01      1.3577
      13.3500    0.22422E-01      1.3562
      13.4000    0.22298E-01      1.3547
      13.4500    0.22175E-01      1.3533
      13.5000    0.22051E-01      1.3519
      13.5500    0.21927E-01      1.3505
      13.6000    0.21803E-01      1.3491
      13.6500    0.21678E-01      1.3478
      13.7000    0.21554E-01      1.3465
      13.7500    0.21429E-01      1.3452
      13.8000    0.21304E-01      1.3439
      13.8500    0.21179E-01      1.3426
      13.9000    0.21054E-01      1.3414
      13.9500    0.20929E-01      1.3401
      14.0000    0.20804E-01      1.3388
      14.0500    0.20678E-01      1.3376
      14.1000    0.20552E-01      1.3364
      14.1500    0.20427E-01      1.3351
      14.2000    0.20301E-01      1.3339
      14.2500    0.20176E-01      1.3326
      14.3000    0.20050E-01      1.3314
      14.3500    0.19924E-01      1.3301
      14.4000    0.19799E-01      1.3288
      14.4500    0.19674E-01      1.3275
      14.5000    0.19548E-01      1.3263
      14.5500    0.19423E-01      1.3249
      14.6000    0.19299E-01      1.3236
      14.6500    0.19174E-01      1.3223
      14.7000    0.19050E-01      1.3209
      14.7500    0.18926E-01      1.3196
      14.8000    0.18802E-01      1.3182
      14.8500    0.18679E-01      1.3168
      14.9000    0.18556E-01      1.3153
      14.9500    0.18434E-01      1.3139
      15.0000    0.18312E-01      1.3124
      15.0500    0.18190E-01      1.3109
      15.1000    0.18069E-01      1.3094
      15.1500    0.17949E-01      1.3079
      15.2000    0.17828E-01      1.3064
      15.2500    0.17709E-01      1.3048
      15.3000    0.17591E-01      1.3032
      15.3500    0.17473E-01      1.3015
      15.4000    0.17356E-01      1.2998
      15.4500    0.17240E-01      1.2981
      15.5000    0.17124E-01      1.2964
      15.5500    0.17010E-01      1.2947
      15.6000    0.16896E-01      1.2929
      15.6500    0.16783E-01      1.2911
      15.7000    0.16671E-01      1.2893
      15.7500    0.16559E-01      1.2875
      15.8000    0.16449E-01      1.2856
      15.8500    0.16339E-01      1.2837
      15.9000    0.16231E-01      1.2818
      15.9500    0.16123E-01      1.2799
      16.0000    0.16016E-01      1.2779
      16.0500    0.15911E-01      1.2760
      16.1000    0.15806E-01      1.2740
      16.1500    0.15702E-01      1.2720
      16.2000    0.15599E-01      1.2700
      16.2500    0.15497E-01      1.2680
      16.3000    0.15397E-01      1.2659
      16.3500    0.15297E-01      1.2639
      16.4000    0.15198E-01      1.2618
      16.4500    0.15100E-01      1.2598
      16.5000    0.15003E-01      1.2577
      16.5500    0.14907E-01      1.2556
      16.6000    0.14813E-01      1.2535
      16.6500    0.14719E-01      1.2514
      16.7000    0.14626E-01      1.2493
      16.7500    0.14534E-01      1.2472
      16.8000    0.14443E-01      1.2451
      16.8500    0.14353E-01      1.2430
      16.9000    0.14264E-01      1.2409
      16.9500    0.14176E-01      1.2388
      17.0000    0.14089E-01      1.2368
      17.0500    0.14002E-01      1.2347
      17.1000    0.13917E-01      1.2326
      17.1500    0.13833E-01      1.2305
      17.2000    0.13749E-01      1.2285
      17.2500    0.13666E-01      1.2264
      17.3000    0.13585E-01      1.2244
      17.3500    0.13504E-01      1.2224
      17.4000    0.13423E-01      1.2204
      17.4500    0.13344E-01      1.2184
      17.5000    0.13265E-01      1.2164
      17.5500    0.13188E-01      1.2145
      17.6000    0.13111E-01      1.2126
      17.6500    0.13034E-01      1.2106
      17.7000    0.12959E-01      1.2088
      17.7500    0.12884E-01      1.2069
